July 5, 2024   17:49:30
Amperometric i-t Curve
File: 10
Data Source:  Experiment
Instrument Model:  CHI760E
Header: 
Note: 

Init E (V) = 0.2
Sample Interval (s) = 0.03
Run Time (sec) = 4e+3
Quiet Time (sec) = 0
Sensitivity (A/V) = 1e-5

Results:

Channel 1:

Time/sec, Current/A

3.000e-2, 6.440e-9
6.000e-2, 6.194e-9
9.000e-2, 5.243e-9
1.200e-1, 6.204e-9
1.500e-1, 6.371e-9
1.800e-1, 4.644e-9
2.100e-1, 6.489e-9
2.400e-1, 6.508e-9
2.700e-1, 6.577e-9
3.000e-1, 5.724e-9
3.300e-1, 6.577e-9
3.600e-1, 6.744e-9
3.900e-1, 3.634e-9
4.200e-1, 6.695e-9
4.500e-1, 6.960e-9
4.800e-1, 6.450e-9
5.100e-1, 7.126e-9
5.400e-1, 7.038e-9
5.700e-1, 7.195e-9
6.000e-1, 4.919e-9
6.300e-1, 7.107e-9
6.600e-1, 6.911e-9
6.900e-1, 4.958e-9
7.200e-1, 6.567e-9
7.500e-1, 6.518e-9
7.800e-1, 6.871e-9
8.100e-1, 5.390e-9
8.400e-1, 6.871e-9
8.700e-1, 7.489e-9
9.000e-1, 4.939e-9
9.300e-1, 6.685e-9
9.600e-1, 6.548e-9
9.900e-1, 6.077e-9
1.020e+0, 6.842e-9
1.050e+0, 7.087e-9
1.080e+0, 7.019e-9
1.110e+0, 5.576e-9
1.140e+0, 6.754e-9
1.170e+0, 6.793e-9
1.200e+0, 5.606e-9
1.230e+0, 6.871e-9
1.260e+0, 6.656e-9
1.290e+0, 6.714e-9
1.320e+0, 5.782e-9
1.350e+0, 6.695e-9
1.380e+0, 6.803e-9
1.410e+0, 5.890e-9
1.440e+0, 6.901e-9
1.470e+0, 6.685e-9
1.500e+0, 6.891e-9
1.530e+0, 6.616e-9
1.560e+0, 6.803e-9
1.590e+0, 6.901e-9
1.620e+0, 5.204e-9
1.650e+0, 6.842e-9
1.680e+0, 6.862e-9
1.710e+0, 6.126e-9
1.740e+0, 6.813e-9
1.770e+0, 6.862e-9
1.800e+0, 6.950e-9
1.830e+0, 5.714e-9
1.860e+0, 6.832e-9
1.890e+0, 6.508e-9
1.920e+0, 6.145e-9
1.950e+0, 6.705e-9
1.980e+0, 6.695e-9
2.010e+0, 6.656e-9
2.040e+0, 5.841e-9
2.070e+0, 6.675e-9
2.100e+0, 6.616e-9
2.130e+0, 4.635e-9
2.160e+0, 7.107e-9
2.190e+0, 6.999e-9
2.220e+0, 5.920e-9
2.250e+0, 6.518e-9
2.280e+0, 6.989e-9
2.310e+0, 6.920e-9
2.340e+0, 5.684e-9
2.370e+0, 6.783e-9
2.400e+0, 6.656e-9
2.430e+0, 5.105e-9
2.460e+0, 6.950e-9
2.490e+0, 6.881e-9
2.520e+0, 6.822e-9
2.550e+0, 5.930e-9
2.580e+0, 6.871e-9
2.610e+0, 6.813e-9
2.640e+0, 5.233e-9
2.670e+0, 6.803e-9
2.700e+0, 6.862e-9
2.730e+0, 6.665e-9
2.760e+0, 6.351e-9
2.790e+0, 7.058e-9
2.820e+0, 6.960e-9
2.850e+0, 4.223e-9
2.880e+0, 6.970e-9
2.910e+0, 7.068e-9
2.940e+0, 6.116e-9
2.970e+0, 7.274e-9
3.000e+0, 6.891e-9
3.030e+0, 7.313e-9
3.060e+0, 5.733e-9
3.090e+0, 7.597e-9
3.120e+0, 7.293e-9
3.150e+0, 5.145e-9
3.180e+0, 7.009e-9
3.210e+0, 7.136e-9
3.240e+0, 6.950e-9
3.270e+0, 6.675e-9
3.300e+0, 7.028e-9
3.330e+0, 6.989e-9
3.360e+0, 4.968e-9
3.390e+0, 6.714e-9
3.420e+0, 6.901e-9
3.450e+0, 6.410e-9
3.480e+0, 7.058e-9
3.510e+0, 6.783e-9
3.540e+0, 6.793e-9
3.570e+0, 5.194e-9
3.600e+0, 6.822e-9
3.630e+0, 6.803e-9
3.660e+0, 5.478e-9
3.690e+0, 6.813e-9
3.720e+0, 6.881e-9
3.750e+0, 6.862e-9
3.780e+0, 6.145e-9
3.810e+0, 4.752e-9
3.840e+0, 6.901e-9
3.870e+0, 5.321e-9
3.900e+0, 7.195e-9
3.930e+0, 7.097e-9
3.960e+0, 6.322e-9
3.990e+0, 6.371e-9
4.020e+0, 6.607e-9
4.050e+0, 6.842e-9
4.080e+0, 4.615e-9
4.110e+0, 6.744e-9
4.140e+0, 6.813e-9
4.170e+0, 6.136e-9
4.200e+0, 7.077e-9
4.230e+0, 7.058e-9
4.260e+0, 6.950e-9
4.290e+0, 5.410e-9
4.320e+0, 6.881e-9
4.350e+0, 6.803e-9
4.380e+0, 5.341e-9
4.410e+0, 5.616e-9
4.440e+0, 4.370e-9
4.470e+0, 6.607e-9
4.500e+0, 6.705e-9
4.530e+0, 6.783e-9
4.560e+0, 6.518e-9
4.590e+0, 3.801e-9
4.620e+0, 6.734e-9
4.650e+0, 6.832e-9
4.680e+0, 5.674e-9
4.710e+0, 8.294e-9
4.740e+0, 6.646e-9
4.770e+0, 6.685e-9
4.800e+0, 5.939e-9
4.830e+0, 6.960e-9
4.860e+0, 6.950e-9
4.890e+0, 4.154e-9
4.920e+0, 7.087e-9
4.950e+0, 7.038e-9
4.980e+0, 6.852e-9
5.010e+0, 5.900e-9
5.040e+0, 6.783e-9
5.070e+0, 6.871e-9
5.100e+0, 4.340e-9
5.130e+0, 4.458e-9
5.160e+0, 6.734e-9
5.190e+0, 5.370e-9
5.220e+0, 6.724e-9
5.250e+0, 6.793e-9
5.280e+0, 6.803e-9
5.310e+0, 5.037e-9
5.340e+0, 6.871e-9
5.370e+0, 7.009e-9
5.400e+0, 5.704e-9
5.430e+0, 6.881e-9
5.460e+0, 6.754e-9
5.490e+0, 6.724e-9
5.520e+0, 5.900e-9
5.550e+0, 7.028e-9
5.580e+0, 7.077e-9
5.610e+0, 5.341e-9
5.640e+0, 6.970e-9
5.670e+0, 6.773e-9
5.700e+0, 6.302e-9
5.730e+0, 5.429e-9
5.760e+0, 6.744e-9
5.790e+0, 6.646e-9
5.820e+0, 4.272e-9
5.850e+0, 6.911e-9
5.880e+0, 6.724e-9
5.910e+0, 5.498e-9
5.940e+0, 6.744e-9
5.970e+0, 6.822e-9
6.000e+0, 6.891e-9
6.030e+0, 6.175e-9
6.060e+0, 6.871e-9
6.090e+0, 6.783e-9
6.120e+0, 5.400e-9
6.150e+0, 6.940e-9
6.180e+0, 6.989e-9
6.210e+0, 7.166e-9
6.240e+0, 6.695e-9
6.270e+0, 6.960e-9
6.300e+0, 6.763e-9
6.330e+0, 4.281e-9
6.360e+0, 6.695e-9
6.390e+0, 6.391e-9
6.420e+0, 6.077e-9
6.450e+0, 6.842e-9
6.480e+0, 6.763e-9
6.510e+0, 7.048e-9
6.540e+0, 6.087e-9
6.570e+0, 6.636e-9
6.600e+0, 6.813e-9
6.630e+0, 4.183e-9
6.660e+0, 6.881e-9
6.690e+0, 7.019e-9
6.720e+0, 6.754e-9
6.750e+0, 5.429e-9
6.780e+0, 6.891e-9
6.810e+0, 6.793e-9
6.840e+0, 5.262e-9
6.870e+0, 6.675e-9
6.900e+0, 6.528e-9
6.930e+0, 5.625e-9
6.960e+0, 5.782e-9
6.990e+0, 6.685e-9
7.020e+0, 6.695e-9
7.050e+0, 5.076e-9
7.080e+0, 6.705e-9
7.110e+0, 6.577e-9
7.140e+0, 5.773e-9
7.170e+0, 6.126e-9
7.200e+0, 1.166e-8
7.230e+0, 6.041e-8
7.260e+0, 2.017e-7
7.290e+0, 3.559e-7
7.320e+0, 5.147e-7
7.350e+0, 5.580e-7
7.380e+0, 5.684e-7
7.410e+0, 1.176e-7
7.440e+0, 6.070e-8
7.470e+0, 7.646e-9
7.500e+0, 2.715e-8
7.530e+0, 3.552e-7
7.560e+0, 5.073e-7
7.590e+0, 7.244e-7
7.620e+0, 5.652e-7
7.650e+0, 7.097e-7
7.680e+0, 7.538e-8
7.710e+0, 9.197e-9
7.740e+0, 6.763e-9
7.770e+0, 5.684e-9
7.800e+0, 6.636e-9
7.830e+0, 6.607e-9
7.860e+0, 4.370e-9
7.890e+0, 5.655e-9
7.920e+0, 1.927e-9
7.950e+0, 4.264e-8
7.980e+0, 3.459e-7
8.010e+0, 1.228e-6
8.040e+0, 4.009e-7
8.070e+0, -1.356e-7
8.100e+0, -2.749e-7
8.130e+0, -3.077e-7
8.160e+0, -2.856e-7
8.190e+0, -1.265e-7
8.220e+0, 6.212e-8
8.250e+0, 2.762e-7
8.280e+0, 8.657e-7
8.310e+0, 2.196e-6
8.340e+0, 3.431e-6
8.370e+0, 3.904e-6
8.400e+0, 3.968e-6
8.430e+0, 3.932e-6
8.460e+0, 4.093e-6
8.490e+0, 4.691e-6
8.520e+0, 5.933e-6
8.550e+0, 7.054e-6
8.580e+0, 7.312e-6
8.610e+0, 7.640e-6
8.640e+0, 7.581e-6
8.670e+0, 7.778e-6
8.700e+0, 7.692e-6
8.730e+0, 7.278e-6
8.760e+0, 6.902e-6
8.790e+0, 6.840e-6
8.820e+0, 6.287e-6
8.850e+0, 5.346e-6
8.880e+0, 4.844e-6
8.910e+0, 4.190e-6
8.940e+0, 3.957e-6
8.970e+0, 4.356e-6
9.000e+0, 4.715e-6
9.030e+0, 4.847e-6
9.060e+0, 5.522e-6
9.090e+0, 5.631e-6
9.120e+0, 5.710e-6
9.150e+0, 6.067e-6
9.180e+0, 6.872e-6
9.210e+0, 7.244e-6
9.240e+0, 7.344e-6
9.270e+0, 7.468e-6
9.300e+0, 7.294e-6
9.330e+0, 7.313e-6
9.360e+0, 7.168e-6
9.390e+0, 7.055e-6
9.420e+0, 6.877e-6
9.450e+0, 6.837e-6
9.480e+0, 6.821e-6
9.510e+0, 6.696e-6
9.540e+0, 6.593e-6
9.570e+0, 6.597e-6
9.600e+0, 6.629e-6
9.630e+0, 6.582e-6
9.660e+0, 6.586e-6
9.690e+0, 6.558e-6
9.720e+0, 6.543e-6
9.750e+0, 6.492e-6
9.780e+0, 6.587e-6
9.810e+0, 6.720e-6
9.840e+0, 7.503e-6
9.870e+0, 8.015e-6
9.900e+0, 8.329e-6
9.930e+0, 8.415e-6
9.960e+0, 8.443e-6
9.990e+0, 8.162e-6
1.002e+1, 7.985e-6
1.005e+1, 7.543e-6
1.008e+1, 7.723e-6
1.011e+1, 7.946e-6
1.014e+1, 8.042e-6
1.017e+1, 8.122e-6
1.020e+1, 8.107e-6
1.023e+1, 8.105e-6
1.026e+1, 8.111e-6
1.029e+1, 8.084e-6
1.032e+1, 8.080e-6
1.035e+1, 8.095e-6
1.038e+1, 8.127e-6
1.041e+1, 8.134e-6
1.044e+1, 8.113e-6
1.047e+1, 8.123e-6
1.050e+1, 8.465e-6
1.053e+1, 8.711e-6
1.056e+1, 8.898e-6
1.059e+1, 8.745e-6
1.062e+1, 8.913e-6
1.065e+1, 8.935e-6
1.068e+1, 8.952e-6
1.071e+1, 8.965e-6
1.074e+1, 8.931e-6
1.077e+1, 9.017e-6
1.080e+1, 9.062e-6
1.083e+1, 9.105e-6
1.086e+1, 9.057e-6
1.089e+1, 8.967e-6
1.092e+1, 8.951e-6
1.095e+1, 8.954e-6
1.098e+1, 8.962e-6
1.101e+1, 8.934e-6
1.104e+1, 8.880e-6
1.107e+1, 8.877e-6
1.110e+1, 8.752e-6
1.113e+1, 8.662e-6
1.116e+1, 8.804e-6
1.119e+1, 8.992e-6
1.122e+1, 9.158e-6
1.125e+1, 9.336e-6
1.128e+1, 9.416e-6
1.131e+1, 9.428e-6
1.134e+1, 9.486e-6
1.137e+1, 9.529e-6
1.140e+1, 9.544e-6
1.143e+1, 9.097e-6
1.146e+1, 8.965e-6
1.149e+1, 8.626e-6
1.152e+1, 8.128e-6
1.155e+1, 7.766e-6
1.158e+1, 7.135e-6
1.161e+1, 6.527e-6
1.164e+1, 6.096e-6
1.167e+1, 5.800e-6
1.170e+1, 5.863e-6
1.173e+1, 5.804e-6
1.176e+1, 5.445e-6
1.179e+1, 5.194e-6
1.182e+1, 4.528e-6
1.185e+1, 3.557e-6
1.188e+1, 2.595e-6
1.191e+1, 9.165e-7
1.194e+1, 5.635e-7
1.197e+1, 3.115e-7
1.200e+1, 3.355e-7
1.203e+1, 5.037e-7
1.206e+1, 1.267e-7
1.209e+1, 1.291e-8
1.212e+1, 9.255e-9
1.215e+1, 7.617e-9
1.218e+1, 7.695e-9
1.221e+1, 7.450e-9
1.224e+1, 7.303e-9
1.227e+1, 4.556e-9
1.230e+1, 6.685e-9
1.233e+1, 6.763e-9
1.236e+1, 9.010e-9
1.239e+1, 1.535e-7
1.242e+1, 1.012e-6
1.245e+1, 2.271e-6
1.248e+1, 2.552e-6
1.251e+1, 3.062e-6
1.254e+1, 3.287e-6
1.257e+1, 3.567e-6
1.260e+1, 3.823e-6
1.263e+1, 4.093e-6
1.266e+1, 4.871e-6
1.269e+1, 5.428e-6
1.272e+1, 5.652e-6
1.275e+1, 5.587e-6
1.278e+1, 5.590e-6
1.281e+1, 5.633e-6
1.284e+1, 5.466e-6
1.287e+1, 5.275e-6
1.290e+1, 5.154e-6
1.293e+1, 5.216e-6
1.296e+1, 4.983e-6
1.299e+1, 4.963e-6
1.302e+1, 4.870e-6
1.305e+1, 4.602e-6
1.308e+1, 4.635e-6
1.311e+1, 4.530e-6
1.314e+1, 4.208e-6
1.317e+1, 4.391e-6
1.320e+1, 4.668e-6
1.323e+1, 4.540e-6
1.326e+1, 4.660e-6
1.329e+1, 4.994e-6
1.332e+1, 5.028e-6
1.335e+1, 5.058e-6
1.338e+1, 4.872e-6
1.341e+1, 4.738e-6
1.344e+1, 4.872e-6
1.347e+1, 4.793e-6
1.350e+1, 4.780e-6
1.353e+1, 4.632e-6
1.356e+1, 4.888e-6
1.359e+1, 5.063e-6
1.362e+1, 5.151e-6
1.365e+1, 5.164e-6
1.368e+1, 5.110e-6
1.371e+1, 4.958e-6
1.374e+1, 4.710e-6
1.377e+1, 4.498e-6
1.380e+1, 4.547e-6
1.383e+1, 4.602e-6
1.386e+1, 4.493e-6
1.389e+1, 4.665e-6
1.392e+1, 4.562e-6
1.395e+1, 4.288e-6
1.398e+1, 4.156e-6
1.401e+1, 4.153e-6
1.404e+1, 3.984e-6
1.407e+1, 3.888e-6
1.410e+1, 3.890e-6
1.413e+1, 3.956e-6
1.416e+1, 4.214e-6
1.419e+1, 4.565e-6
1.422e+1, 4.485e-6
1.425e+1, 4.692e-6
1.428e+1, 4.760e-6
1.431e+1, 4.789e-6
1.434e+1, 5.007e-6
1.437e+1, 5.150e-6
1.440e+1, 5.016e-6
1.443e+1, 4.950e-6
1.446e+1, 5.028e-6
1.449e+1, 4.945e-6
1.452e+1, 4.979e-6
1.455e+1, 4.995e-6
1.458e+1, 4.960e-6
1.461e+1, 4.971e-6
1.464e+1, 5.007e-6
1.467e+1, 5.087e-6
1.470e+1, 5.102e-6
1.473e+1, 5.113e-6
1.476e+1, 4.957e-6
1.479e+1, 4.980e-6
1.482e+1, 4.942e-6
1.485e+1, 4.946e-6
1.488e+1, 4.981e-6
1.491e+1, 5.004e-6
1.494e+1, 5.101e-6
1.497e+1, 5.316e-6
1.500e+1, 5.454e-6
1.503e+1, 5.426e-6
1.506e+1, 5.429e-6
1.509e+1, 5.465e-6
1.512e+1, 5.484e-6
1.515e+1, 5.482e-6
1.518e+1, 5.482e-6
1.521e+1, 5.481e-6
1.524e+1, 5.450e-6
1.527e+1, 5.429e-6
1.530e+1, 5.399e-6
1.533e+1, 5.166e-6
1.536e+1, 5.032e-6
1.539e+1, 5.047e-6
1.542e+1, 5.025e-6
1.545e+1, 4.977e-6
1.548e+1, 4.948e-6
1.551e+1, 4.914e-6
1.554e+1, 4.892e-6
1.557e+1, 4.850e-6
1.560e+1, 4.835e-6
1.563e+1, 4.848e-6
1.566e+1, 4.910e-6
1.569e+1, 5.101e-6
1.572e+1, 5.336e-6
1.575e+1, 5.540e-6
1.578e+1, 5.626e-6
1.581e+1, 5.702e-6
1.584e+1, 5.769e-6
1.587e+1, 5.779e-6
1.590e+1, 5.771e-6
1.593e+1, 5.721e-6
1.596e+1, 5.730e-6
1.599e+1, 5.756e-6
1.602e+1, 5.726e-6
1.605e+1, 5.668e-6
1.608e+1, 5.631e-6
1.611e+1, 5.616e-6
1.614e+1, 5.568e-6
1.617e+1, 5.479e-6
1.620e+1, 5.346e-6
1.623e+1, 5.360e-6
1.626e+1, 5.333e-6
1.629e+1, 5.315e-6
1.632e+1, 5.278e-6
1.635e+1, 5.167e-6
1.638e+1, 5.070e-6
1.641e+1, 4.902e-6
1.644e+1, 4.852e-6
1.647e+1, 5.152e-6
1.650e+1, 5.492e-6
1.653e+1, 5.633e-6
1.656e+1, 5.805e-6
1.659e+1, 5.795e-6
1.662e+1, 5.855e-6
1.665e+1, 5.873e-6
1.668e+1, 5.865e-6
1.671e+1, 5.784e-6
1.674e+1, 5.771e-6
1.677e+1, 5.772e-6
1.680e+1, 5.751e-6
1.683e+1, 5.745e-6
1.686e+1, 5.710e-6
1.689e+1, 5.676e-6
1.692e+1, 5.629e-6
1.695e+1, 5.643e-6
1.698e+1, 5.627e-6
1.701e+1, 5.608e-6
1.704e+1, 5.528e-6
1.707e+1, 5.376e-6
1.710e+1, 5.244e-6
1.713e+1, 5.126e-6
1.716e+1, 4.956e-6
1.719e+1, 4.926e-6
1.722e+1, 4.916e-6
1.725e+1, 5.189e-6
1.728e+1, 5.219e-6
1.731e+1, 5.420e-6
1.734e+1, 5.451e-6
1.737e+1, 5.572e-6
1.740e+1, 5.671e-6
1.743e+1, 5.720e-6
1.746e+1, 5.668e-6
1.749e+1, 5.520e-6
1.752e+1, 5.554e-6
1.755e+1, 5.541e-6
1.758e+1, 5.522e-6
1.761e+1, 5.494e-6
1.764e+1, 5.485e-6
1.767e+1, 5.483e-6
1.770e+1, 5.467e-6
1.773e+1, 5.391e-6
1.776e+1, 5.390e-6
1.779e+1, 5.371e-6
1.782e+1, 5.369e-6
1.785e+1, 5.368e-6
1.788e+1, 5.395e-6
1.791e+1, 5.364e-6
1.794e+1, 5.251e-6
1.797e+1, 5.253e-6
1.800e+1, 5.227e-6
1.803e+1, 5.228e-6
1.806e+1, 5.297e-6
1.809e+1, 5.572e-6
1.812e+1, 5.904e-6
1.815e+1, 5.813e-6
1.818e+1, 5.721e-6
1.821e+1, 5.755e-6
1.824e+1, 5.784e-6
1.827e+1, 5.627e-6
1.830e+1, 5.607e-6
1.833e+1, 5.599e-6
1.836e+1, 5.578e-6
1.839e+1, 5.597e-6
1.842e+1, 5.596e-6
1.845e+1, 5.574e-6
1.848e+1, 5.513e-6
1.851e+1, 5.524e-6
1.854e+1, 5.551e-6
1.857e+1, 5.513e-6
1.860e+1, 5.491e-6
1.863e+1, 5.458e-6
1.866e+1, 5.359e-6
1.869e+1, 5.301e-6
1.872e+1, 5.269e-6
1.875e+1, 5.254e-6
1.878e+1, 5.099e-6
1.881e+1, 5.062e-6
1.884e+1, 5.178e-6
1.887e+1, 5.453e-6
1.890e+1, 5.773e-6
1.893e+1, 6.048e-6
1.896e+1, 6.196e-6
1.899e+1, 6.224e-6
1.902e+1, 6.174e-6
1.905e+1, 6.044e-6
1.908e+1, 5.953e-6
1.911e+1, 5.900e-6
1.914e+1, 5.832e-6
1.917e+1, 5.785e-6
1.920e+1, 5.771e-6
1.923e+1, 5.756e-6
1.926e+1, 5.743e-6
1.929e+1, 5.709e-6
1.932e+1, 5.630e-6
1.935e+1, 5.538e-6
1.938e+1, 5.521e-6
1.941e+1, 5.488e-6
1.944e+1, 5.414e-6
1.947e+1, 5.406e-6
1.950e+1, 5.399e-6
1.953e+1, 5.428e-6
1.956e+1, 5.431e-6
1.959e+1, 5.421e-6
1.962e+1, 5.410e-6
1.965e+1, 5.495e-6
1.968e+1, 5.838e-6
1.971e+1, 6.087e-6
1.974e+1, 5.924e-6
1.977e+1, 5.999e-6
1.980e+1, 6.034e-6
1.983e+1, 6.069e-6
1.986e+1, 5.969e-6
1.989e+1, 5.973e-6
1.992e+1, 5.991e-6
1.995e+1, 5.985e-6
1.998e+1, 5.850e-6
2.001e+1, 5.712e-6
2.004e+1, 5.676e-6
2.007e+1, 5.646e-6
2.010e+1, 5.415e-6
2.013e+1, 5.384e-6
2.016e+1, 5.322e-6
2.019e+1, 5.315e-6
2.022e+1, 5.304e-6
2.025e+1, 5.299e-6
2.028e+1, 5.288e-6
2.031e+1, 5.234e-6
2.034e+1, 5.091e-6
2.037e+1, 5.178e-6
2.040e+1, 5.270e-6
2.043e+1, 5.426e-6
2.046e+1, 5.455e-6
2.049e+1, 5.447e-6
2.052e+1, 5.473e-6
2.055e+1, 5.503e-6
2.058e+1, 5.571e-6
2.061e+1, 5.497e-6
2.064e+1, 5.422e-6
2.067e+1, 5.433e-6
2.070e+1, 5.419e-6
2.073e+1, 5.402e-6
2.076e+1, 5.373e-6
2.079e+1, 5.297e-6
2.082e+1, 5.280e-6
2.085e+1, 5.306e-6
2.088e+1, 5.282e-6
2.091e+1, 5.205e-6
2.094e+1, 5.190e-6
2.097e+1, 5.275e-6
2.100e+1, 5.190e-6
2.103e+1, 5.065e-6
2.106e+1, 5.044e-6
2.109e+1, 5.017e-6
2.112e+1, 4.969e-6
2.115e+1, 5.022e-6
2.118e+1, 5.269e-6
2.121e+1, 5.403e-6
2.124e+1, 5.341e-6
2.127e+1, 5.313e-6
2.130e+1, 5.408e-6
2.133e+1, 5.477e-6
2.136e+1, 5.485e-6
2.139e+1, 5.414e-6
2.142e+1, 5.469e-6
2.145e+1, 5.493e-6
2.148e+1, 5.425e-6
2.151e+1, 5.455e-6
2.154e+1, 5.454e-6
2.157e+1, 5.340e-6
2.160e+1, 5.293e-6
2.163e+1, 5.301e-6
2.166e+1, 5.309e-6
2.169e+1, 5.317e-6
2.172e+1, 5.326e-6
2.175e+1, 5.287e-6
2.178e+1, 5.283e-6
2.181e+1, 5.302e-6
2.184e+1, 5.258e-6
2.187e+1, 5.231e-6
2.190e+1, 5.288e-6
2.193e+1, 5.456e-6
2.196e+1, 5.499e-6
2.199e+1, 5.490e-6
2.202e+1, 5.524e-6
2.205e+1, 5.573e-6
2.208e+1, 5.436e-6
2.211e+1, 5.400e-6
2.214e+1, 5.404e-6
2.217e+1, 5.404e-6
2.220e+1, 5.429e-6
2.223e+1, 5.425e-6
2.226e+1, 5.419e-6
2.229e+1, 5.383e-6
2.232e+1, 5.267e-6
2.235e+1, 5.322e-6
2.238e+1, 5.300e-6
2.241e+1, 5.240e-6
2.244e+1, 5.286e-6
2.247e+1, 5.354e-6
2.250e+1, 5.381e-6
2.253e+1, 5.290e-6
2.256e+1, 5.147e-6
2.259e+1, 5.158e-6
2.262e+1, 5.152e-6
2.265e+1, 5.220e-6
2.268e+1, 5.355e-6
2.271e+1, 5.457e-6
2.274e+1, 5.515e-6
2.277e+1, 5.533e-6
2.280e+1, 5.603e-6
2.283e+1, 5.598e-6
2.286e+1, 5.596e-6
2.289e+1, 5.469e-6
2.292e+1, 5.500e-6
2.295e+1, 5.504e-6
2.298e+1, 5.493e-6
2.301e+1, 5.476e-6
2.304e+1, 5.436e-6
2.307e+1, 5.403e-6
2.310e+1, 5.412e-6
2.313e+1, 5.438e-6
2.316e+1, 5.410e-6
2.319e+1, 5.307e-6
2.322e+1, 5.361e-6
2.325e+1, 5.375e-6
2.328e+1, 5.277e-6
2.331e+1, 5.041e-6
2.334e+1, 5.142e-6
2.337e+1, 5.177e-6
2.340e+1, 5.325e-6
2.343e+1, 5.328e-6
2.346e+1, 5.345e-6
2.349e+1, 5.440e-6
2.352e+1, 5.454e-6
2.355e+1, 5.466e-6
2.358e+1, 5.438e-6
2.361e+1, 5.344e-6
2.364e+1, 5.408e-6
2.367e+1, 5.412e-6
2.370e+1, 5.337e-6
2.373e+1, 5.311e-6
2.376e+1, 5.262e-6
2.379e+1, 5.170e-6
2.382e+1, 5.047e-6
2.385e+1, 5.151e-6
2.388e+1, 5.185e-6
2.391e+1, 5.147e-6
2.394e+1, 5.151e-6
2.397e+1, 5.196e-6
2.400e+1, 5.220e-6
2.403e+1, 5.185e-6
2.406e+1, 5.147e-6
2.409e+1, 5.129e-6
2.412e+1, 5.222e-6
2.415e+1, 5.309e-6
2.418e+1, 5.267e-6
2.421e+1, 5.084e-6
2.424e+1, 5.077e-6
2.427e+1, 5.209e-6
2.430e+1, 5.287e-6
2.433e+1, 5.264e-6
2.436e+1, 5.274e-6
2.439e+1, 5.302e-6
2.442e+1, 5.288e-6
2.445e+1, 5.284e-6
2.448e+1, 5.301e-6
2.451e+1, 5.284e-6
2.454e+1, 5.282e-6
2.457e+1, 5.245e-6
2.460e+1, 5.212e-6
2.463e+1, 5.132e-6
2.466e+1, 5.147e-6
2.469e+1, 5.199e-6
2.472e+1, 5.212e-6
2.475e+1, 5.088e-6
2.478e+1, 4.877e-6
2.481e+1, 4.741e-6
2.484e+1, 4.724e-6
2.487e+1, 4.709e-6
2.490e+1, 4.848e-6
2.493e+1, 5.192e-6
2.496e+1, 5.273e-6
2.499e+1, 5.231e-6
2.502e+1, 5.215e-6
2.505e+1, 5.267e-6
2.508e+1, 5.309e-6
2.511e+1, 5.280e-6
2.514e+1, 5.269e-6
2.517e+1, 5.319e-6
2.520e+1, 5.314e-6
2.523e+1, 5.285e-6
2.526e+1, 5.284e-6
2.529e+1, 5.281e-6
2.532e+1, 5.270e-6
2.535e+1, 5.240e-6
2.538e+1, 5.222e-6
2.541e+1, 5.182e-6
2.544e+1, 5.150e-6
2.547e+1, 5.201e-6
2.550e+1, 5.196e-6
2.553e+1, 5.198e-6
2.556e+1, 5.198e-6
2.559e+1, 5.090e-6
2.562e+1, 4.836e-6
2.565e+1, 4.705e-6
2.568e+1, 4.694e-6
2.571e+1, 4.940e-6
2.574e+1, 5.250e-6
2.577e+1, 5.308e-6
2.580e+1, 5.298e-6
2.583e+1, 5.351e-6
2.586e+1, 5.466e-6
2.589e+1, 5.426e-6
2.592e+1, 5.347e-6
2.595e+1, 5.340e-6
2.598e+1, 5.363e-6
2.601e+1, 5.306e-6
2.604e+1, 5.205e-6
2.607e+1, 5.060e-6
2.610e+1, 5.018e-6
2.613e+1, 5.030e-6
2.616e+1, 5.008e-6
2.619e+1, 4.978e-6
2.622e+1, 4.966e-6
2.625e+1, 4.997e-6
2.628e+1, 4.959e-6
2.631e+1, 4.897e-6
2.634e+1, 4.844e-6
2.637e+1, 4.826e-6
2.640e+1, 4.833e-6
2.643e+1, 4.869e-6
2.646e+1, 4.922e-6
2.649e+1, 5.053e-6
2.652e+1, 5.325e-6
2.655e+1, 5.378e-6
2.658e+1, 5.477e-6
2.661e+1, 5.536e-6
2.664e+1, 5.583e-6
2.667e+1, 5.464e-6
2.670e+1, 5.437e-6
2.673e+1, 5.393e-6
2.676e+1, 5.378e-6
2.679e+1, 5.382e-6
2.682e+1, 5.382e-6
2.685e+1, 5.412e-6
2.688e+1, 5.417e-6
2.691e+1, 5.401e-6
2.694e+1, 5.368e-6
2.697e+1, 5.369e-6
2.700e+1, 5.324e-6
2.703e+1, 5.277e-6
2.706e+1, 5.255e-6
2.709e+1, 5.163e-6
2.712e+1, 5.164e-6
2.715e+1, 5.096e-6
2.718e+1, 5.055e-6
2.721e+1, 5.049e-6
2.724e+1, 5.062e-6
2.727e+1, 5.013e-6
2.730e+1, 5.252e-6
2.733e+1, 5.440e-6
2.736e+1, 5.423e-6
2.739e+1, 5.431e-6
2.742e+1, 5.453e-6
2.745e+1, 5.499e-6
2.748e+1, 5.480e-6
2.751e+1, 5.395e-6
2.754e+1, 5.430e-6
2.757e+1, 5.458e-6
2.760e+1, 5.483e-6
2.763e+1, 5.474e-6
2.766e+1, 5.467e-6
2.769e+1, 5.441e-6
2.772e+1, 5.438e-6
2.775e+1, 5.499e-6
2.778e+1, 5.497e-6
2.781e+1, 5.476e-6
2.784e+1, 5.518e-6
2.787e+1, 5.519e-6
2.790e+1, 5.490e-6
2.793e+1, 5.506e-6
2.796e+1, 5.360e-6
2.799e+1, 5.310e-6
2.802e+1, 5.418e-6
2.805e+1, 5.548e-6
2.808e+1, 5.606e-6
2.811e+1, 5.703e-6
2.814e+1, 5.806e-6
2.817e+1, 5.873e-6
2.820e+1, 5.870e-6
2.823e+1, 5.871e-6
2.826e+1, 5.679e-6
2.829e+1, 5.660e-6
2.832e+1, 5.676e-6
2.835e+1, 5.729e-6
2.838e+1, 5.440e-6
2.841e+1, 5.157e-6
2.844e+1, 5.173e-6
2.847e+1, 5.245e-6
2.850e+1, 5.127e-6
2.853e+1, 5.067e-6
2.856e+1, 5.108e-6
2.859e+1, 5.093e-6
2.862e+1, 5.085e-6
2.865e+1, 5.066e-6
2.868e+1, 5.042e-6
2.871e+1, 4.986e-6
2.874e+1, 4.878e-6
2.877e+1, 4.900e-6
2.880e+1, 5.362e-6
2.883e+1, 5.616e-6
2.886e+1, 5.573e-6
2.889e+1, 5.687e-6
2.892e+1, 5.853e-6
2.895e+1, 5.988e-6
2.898e+1, 5.988e-6
2.901e+1, 5.947e-6
2.904e+1, 5.795e-6
2.907e+1, 5.784e-6
2.910e+1, 5.686e-6
2.913e+1, 5.688e-6
2.916e+1, 5.664e-6
2.919e+1, 5.618e-6
2.922e+1, 5.543e-6
2.925e+1, 5.566e-6
2.928e+1, 5.497e-6
2.931e+1, 5.310e-6
2.934e+1, 5.314e-6
2.937e+1, 5.274e-6
2.940e+1, 4.954e-6
2.943e+1, 5.008e-6
2.946e+1, 5.099e-6
2.949e+1, 5.105e-6
2.952e+1, 5.101e-6
2.955e+1, 5.194e-6
2.958e+1, 5.307e-6
2.961e+1, 5.619e-6
2.964e+1, 5.645e-6
2.967e+1, 5.640e-6
2.970e+1, 5.703e-6
2.973e+1, 5.847e-6
2.976e+1, 5.952e-6
2.979e+1, 5.906e-6
2.982e+1, 5.655e-6
2.985e+1, 5.661e-6
2.988e+1, 5.664e-6
2.991e+1, 5.681e-6
2.994e+1, 5.677e-6
2.997e+1, 5.652e-6
3.000e+1, 5.635e-6
3.003e+1, 5.631e-6
3.006e+1, 5.623e-6
3.009e+1, 5.452e-6
3.012e+1, 5.392e-6
3.015e+1, 5.386e-6
3.018e+1, 5.377e-6
3.021e+1, 5.269e-6
3.024e+1, 5.235e-6
3.027e+1, 5.262e-6
3.030e+1, 5.218e-6
3.033e+1, 5.102e-6
3.036e+1, 5.187e-6
3.039e+1, 5.439e-6
3.042e+1, 5.725e-6
3.045e+1, 5.772e-6
3.048e+1, 5.898e-6
3.051e+1, 6.014e-6
3.054e+1, 6.051e-6
3.057e+1, 6.073e-6
3.060e+1, 5.889e-6
3.063e+1, 5.812e-6
3.066e+1, 5.843e-6
3.069e+1, 5.800e-6
3.072e+1, 5.747e-6
3.075e+1, 5.695e-6
3.078e+1, 5.683e-6
3.081e+1, 5.516e-6
3.084e+1, 5.490e-6
3.087e+1, 5.485e-6
3.090e+1, 5.462e-6
3.093e+1, 5.376e-6
3.096e+1, 5.207e-6
3.099e+1, 5.293e-6
3.102e+1, 5.327e-6
3.105e+1, 5.266e-6
3.108e+1, 5.262e-6
3.111e+1, 5.257e-6
